7699			10976.8			109.265			1.04291				151.941			1.45024
7702			10543.2			108.444			1.05613				150.296			1.46373
7703			1575.5			109.631			2.76201				153.246			3.86082

7697			1020.5			16.3945			0.513206			21.3332			0.667805
7698			1194			16.2456			0.470148			20.275			0.586759

7671			8388.25			59.3895			0.648446			84.957			0.927605
7672			10019			60.5382			0.604808			86.564			0.864819

7673			1206.75			9.68289			0.278738			12.1207			0.348913
7674			554.5			9.58694			0.407126			11.9672			0.50821

7706			6166.25			106.959			1.36209				153.709			1.95744
7707			5404.5			107.803			1.4664				156.366			2.12698
7708			5680			106.473			1.41275				154.21			2.04616
7709			6148.75			110.331			1.40704				159.23			2.03064
7710			3128.5			110.523			1.97598				160.815			2.87514

7711			1792.25			16.2741			0.384413			21.4172			0.505897
7712			929.25			16.5191			0.541901			21.5873			0.708161

7679			6555.25			63.5606			0.785043			92.0504			1.13692
7680			6090.25			64.3119			0.824089			91.8679			1.17719
7681			6122.5			62.3627			0.797004			90.6391			1.15838
7682			6321.5			64.2809			0.808485			91.822			1.15488

7674			554.5			9.58694			0.407126			11.9672			0.50821
7675			1049.75			9.85239			0.304087			12.6764			0.39125
7676			1274.5			9.99895			0.280082			12.6285			0.353737
7677			514.25			9.25203			0.40799				12.1394			0.535315

7716			3001			100.426			1.83322				151.036			2.75706
7717			3349			105.699			1.82647				153.515			2.65273
7718			3713.5			105.642			1.73359				155.741			2.55571
7719			3002.5			104.59			1.90875				153.749			2.8059
7720			3044.25			102.64			1.86027				151.653			2.74859
7721			3394.25			103.066			1.76906				150.626			2.5854
7722			2978.25			103.724			1.90064				154.545			2.83188

7713			571.25			15.5636			0.651174			22.2666			0.931625
7714			551.5			14.608			0.622038			20.9699			0.892944
7715			1569.75			16.2076			0.409074			21.5332			0.543492

7684			3646			68.4471			1.13357				98.2527			1.62718
7685			3389.5			64.3175			1.10474				93.8364			1.61177
7686			3388.75			64.7734			1.1127				95.0568			1.63291
7687			3462.5			62.4485			1.06127				92.2878			1.56837
7688			2957.5			66.1408			1.21621				94.0074			1.72862
7689			4270.5			66.5444			1.01829				96.4047			1.47523
7690			1556			66.9574			1.69744				97.0388			2.46003
7692			1722.5			61.4507			1.48063				91.3079			2.20003

7694			1914.5			10.4926			0.239803			13.8317			0.316118
7695			1267.5			10.1863			0.286117			13.3185			0.374095
run			counts			yield_lttr			er				ylttr_cal		er
yield is corrected by LT and TrEff or LT , TrEff and hcal_pcal_eff
